VULCAN
alpha beta intensity
Single peak fit using lmfit routine (P-V profile) at 2022-07-30 19:21:49.170374
5.55713 176.45997 0.76470 0.03324
0.00000 90.00000 1.34009 0.04007
5.55713 3.54003 0.52519 0.02737
89.31892 97.05324 0.18108 0.02115
90.00000 -90.00000 0.05886 0.01809
89.31892 82.94676 0.09895 0.01970
5.55713 -153.54175 0.71604 0.03433
0.00000 119.99828 1.31193 0.04308
5.55713 33.53831 0.71977 0.03239
89.31892 127.05152 0.04210 0.01519
90.00000 -60.00172 0.17878 0.02102
89.31892 112.94504 0.39524 0.02409
5.55713 -123.54090 0.81276 0.03611
0.00000 149.99913 1.27201 0.04073
5.55713 63.53916 0.95893 0.03503
89.31892 157.05237 0.03184 0.01441
90.00000 -30.00087 0.04961 0.01581
89.31892 142.94589 0.01435 0.01439
5.55713 -93.54134 0.96946 0.03786
0.00000 179.99869 1.37408 0.04138
5.55713 93.53873 1.05995 0.03585
89.31892 -172.94807 0.04924 0.02058
90.00000 -0.00131 0.01763 0.01237
89.31892 172.94546 0.01743 0.01254
5.55713 -63.54306 0.89571 0.03822
0.00000 -150.00303 1.20734 0.03928
5.55713 123.53700 0.86607 0.03475
89.31892 -142.94979 0.06117 0.04550
90.00000 29.99697 0.04914 0.01671
89.31892 -157.05627 0.03533 0.02136
5.55713 -33.54092 0.67073 0.03182
0.00000 -120.00089 1.32699 0.04127
5.55713 153.53914 0.66256 0.02942
89.31892 -112.94765 0.38900 0.02668
90.00000 59.99911 0.25989 0.02285
89.31892 -127.05413 0.09835 0.01693
5.55713 -3.54136 0.66086 0.03078
0.00000 -90.00133 1.37886 0.04027
5.55713 -176.46129 0.60803 0.03063
89.31892 -82.94809 0.22628 0.02364
90.00000 89.99867 0.06469 0.02463
89.31892 -97.05456 0.16948 0.03247
5.55713 26.45692 0.65298 0.03279
0.00000 -60.00305 1.26599 0.03948
5.55713 -146.46302 0.76117 0.03225
89.31892 -52.94981 0.03340 0.01598
90.00000 119.99695 0.17702 0.02130
89.31892 -67.05629 0.39325 0.02454
5.55713 56.45906 0.84564 0.03512
0.00000 -30.00091 1.25094 0.03908
5.55713 -116.46088 0.82386 0.03428
89.31892 -22.94767 0.07421 0.01768
90.00000 149.99909 0.04026 0.01426
89.31892 -37.05415 0.02459 0.02067
5.55713 86.45862 1.06543 0.03836
0.00000 -0.00135 1.28479 0.03822
5.55713 -86.46131 0.80691 0.03481
89.31892 7.05189 0.05128 0.01798
90.00000 179.99865 0.04729 0.09676
89.31892 -7.05458 0.02310 0.01399
5.55713 116.45690 0.99722 0.03695
0.00000 29.99693 1.28698 0.04036
5.55713 -56.46304 0.68407 0.03254
89.31892 37.05017 0.02994 0.01292
90.00000 -150.00307 0.03864 0.01481
89.31892 22.94369 0.05705 0.01488
5.55713 146.45904 0.84320 0.03441
0.00000 59.99907 1.32621 0.04165
5.55713 -26.46090 0.52205 0.02790
89.31892 67.05231 0.31680 0.02459
90.00000 -120.00093 0.21709 0.02282
89.31892 52.94583 0.09288 0.02030
6.60131 -177.30280 0.72341 0.03212
3.92476 -120.00093 1.20437 0.03866
6.60131 -62.69906 0.67916 0.03017
81.90616 67.08360 0.37120 0.02617
82.47848 59.99907 0.25310 0.02258
81.90616 52.91454 0.11298 0.01711
6.60131 152.69764 0.82166 0.03554
3.92476 -150.00050 1.11926 0.03775
6.60131 -92.69863 0.81027 0.03459
81.90616 37.08404 0.04525 0.01542
82.47848 29.99950 0.02918 0.01348
81.90616 22.91497 0.05712 0.01500
6.60131 122.69807 1.06044 0.03662
3.92476 179.99994 1.14079 0.03471
6.60131 -122.69819 0.82381 0.03407
81.90616 7.08447 0.28433 0.06717
82.47848 -0.00006 0.01587 0.01475
81.90616 -7.08459 0.02147 0.01273
6.60131 92.69851 0.96739 0.03787
3.92476 150.00038 1.18561 0.03871
6.60131 -152.69776 0.63891 0.02932
81.90616 -22.91509 0.05525 0.02756
82.47848 -29.99962 0.03190 0.01591
81.90616 -37.08416 0.02427 0.01341
6.60131 62.69766 0.90928 0.03612
3.92476 119.99952 1.29208 0.04072
6.60131 177.30139 0.51897 0.02742
81.90616 -52.91594 0.06846 0.01748
82.47848 -60.00048 0.15344 0.02075
81.90616 -67.08501 0.37753 0.02525
6.60131 32.69809 0.67361 0.03249
3.92476 89.99996 1.34989 0.04198
6.60131 147.30183 0.61832 0.03078
81.90616 -82.91551 0.23078 0.02397
82.47848 -90.00004 0.04737 0.01582
81.90616 -97.08457 0.10460 0.01706
6.60131 2.69724 0.52496 0.02860
3.92476 59.99911 1.23332 0.03869
6.60131 117.30098 0.75695 0.03278
81.90616 -112.91636 0.37347 0.02739
82.47848 -120.00089 0.22565 0.02167
81.90616 -127.08542 0.10704 0.01729
6.60131 -27.30232 0.69803 0.03265
3.92476 29.99954 1.14295 0.03699
6.60131 87.30141 0.99923 0.03727
81.90616 -142.91592 0.02427 0.01381
82.47848 -150.00046 0.06532 0.02014
81.90616 -157.08499 0.05699 0.01474
6.60131 -57.30189 0.83979 0.03443
3.92476 -0.00002 1.08023 0.03635
6.60131 57.30185 0.88712 0.03412
81.90616 -172.91549 0.03010 0.01453
82.47848 179.99998 0.02537 0.01406
81.90616 172.91545 -0.17400 2.84515
6.60131 -87.30145 0.88224 0.03668
3.92476 -29.99958 1.00959 0.03497
6.60131 27.30228 0.63132 0.03002
81.90616 157.08495 0.11903 0.05100
82.47848 150.00042 0.07260 0.01745
81.90616 142.91588 0.04694 0.02355
6.60131 -117.30230 0.84467 0.03526
3.92476 -60.00044 1.14207 0.03917
6.60131 -2.69857 0.48912 0.02727
81.90616 127.08410 0.11532 0.01961
82.47848 119.99956 0.17494 0.02010
81.90616 112.91503 0.40675 0.02423
6.60131 -147.30187 0.74070 0.03266
3.92476 -90.00000 1.18497 0.04024
6.60131 -32.69813 0.49256 0.02697
81.90616 97.08453 0.10368 0.01812
82.47848 90.00000 0.06593 0.01725
81.90616 82.91547 0.10926 0.01757
9.34588 -126.69781 0.57640 0.03076
7.86923 -90.00000 0.92477 0.03442
9.34588 -53.30219 0.34642 0.02569
75.04809 97.17037 0.23300 0.02359
75.52700 90.00000 0.07465 0.02034
75.04809 82.82963 0.15163 0.01910
9.34588 -96.69953 0.71462 0.03205
7.86923 -60.00172 0.76014 0.03142
9.34588 -23.30391 0.23604 0.02120
75.04809 127.16864 0.14379 0.02121
75.52700 119.99828 0.26494 0.02356
75.04809 112.82791 0.50030 0.02631
9.34588 -66.69868 0.64687 0.03365
7.86923 -30.00087 0.50382 0.02643
9.34588 6.69694 0.27943 0.02256
75.04809 157.16950 0.13665 0.01943
75.52700 149.99913 0.06073 0.01590
75.04809 142.82876 0.10166 0.01667
9.34588 -36.69912 0.48788 0.02848
7.86923 -0.00131 0.50444 0.02688
9.34588 36.69651 0.49342 0.02713
75.04809 -172.83094 0.06782 0.01903
75.52700 179.99869 0.04998 0.01947
75.04809 172.82833 0.05520 0.01670
9.34588 -6.70212 0.32320 0.02577
7.86923 29.99569 0.64197 0.02785
9.34588 66.69350 0.74167 0.03237
75.04809 -142.83395 0.07357 0.01521
75.52700 -150.00431 0.05292 0.02219
75.04809 -157.17468 0.08387 0.01711
9.34588 23.30130 0.31841 0.02473
7.86923 59.99911 0.88976 0.03360
9.34588 96.69692 0.77335 0.03400
75.04809 -112.83052 0.42732 0.02858
75.52700 -120.00089 0.32147 0.02551
75.04809 -127.17126 0.17593 0.01869
9.34588 53.29700 0.57884 0.03033
7.86923 89.99482 1.08185 0.03769
9.34588 126.69263 0.47796 0.02837
75.04809 -82.83482 0.24149 0.02476
75.52700 -90.00518 0.11292 0.03624
75.04809 -97.17555 0.10315 0.01825
9.34588 83.29914 0.84916 0.03558
7.86923 119.99695 0.85733 0.03286
9.34588 156.69477 0.29462 0.02282
75.04809 -52.83268 0.13300 0.02074
75.52700 -60.00305 0.22488 0.02274
75.04809 -67.17341 0.46768 0.02618
9.34588 113.30128 0.82127 0.03579
7.86923 149.99909 0.61048 0.02768
9.34588 -173.30310 0.35143 0.02347
75.04809 -22.83054 0.12060 0.02995
75.52700 -30.00091 0.04981 0.01897
75.04809 -37.17128 0.07012 0.01626
9.34588 143.30084 0.57057 0.02941
7.86923 179.99865 0.60616 0.02756
9.34588 -143.30353 0.46048 0.02715
75.04809 7.16902 0.09710 0.02344
75.52700 -0.00135 0.04602 0.02837
75.04809 -7.17171 0.04517 0.02000
9.34588 173.29912 0.39942 0.02835
7.86923 -150.00307 0.71037 0.02888
9.34588 -113.30525 0.64568 0.03182
75.04809 37.16730 0.09689 0.02089
75.52700 29.99693 0.07520 0.01591
75.04809 22.82657 0.12295 0.01988
9.34588 -156.69874 0.42741 0.02794
7.86923 -120.00093 0.81867 0.03322
9.34588 -83.30312 0.65156 0.03194
75.04809 67.16944 0.44614 0.02820
75.52700 59.99907 0.31427 0.02411
75.04809 52.82870 0.17925 0.01897
12.76303 -146.20908 0.19266 0.02323
11.84553 -120.00093 0.51945 0.02699
12.76303 -93.79278 0.48929 0.02795
68.66734 67.31318 0.35212 0.02598
69.06442 59.99907 0.35187 0.02653
68.66734 52.68496 0.29215 0.02115
12.76303 -176.20864 0.14087 0.01853
11.84553 -150.00050 0.26015 0.02042
12.76303 -123.79235 0.42881 0.02614
68.66734 37.31362 0.20332 0.02190
69.06442 29.99950 0.13576 0.02011
68.66734 22.68539 0.13890 0.01817
12.76303 153.79179 0.19957 0.02298
11.84553 179.99994 0.22822 0.02043
12.76303 -153.79191 0.21995 0.02473
68.66734 7.31405 0.22019 0.02284
69.06442 -0.00006 0.11889 0.01881
68.66734 -7.31417 0.21581 0.02272
12.76303 123.79223 0.44920 0.02714
11.84553 150.00038 0.24461 0.02019
12.76303 176.20852 0.14228 0.01972
68.66734 -22.68551 0.12566 0.01935
69.06442 -29.99962 0.09635 0.02063
68.66734 -37.31374 0.13456 0.01824
12.76303 93.79138 0.60745 0.03266
11.84553 119.99952 0.50360 0.02530
12.76303 146.20767 0.12847 0.01706
68.66734 -52.68636 0.34866 0.02596
69.06442 -60.00048 0.35648 0.02688
68.66734 -67.31459 0.48176 0.02726
12.76303 63.79824 0.43862 0.02781
11.84553 90.00639 0.69370 0.03036
12.76303 116.21454 0.37568 0.02516
68.66734 -82.67950 0.28661 0.02808
69.06442 -89.99361 0.10324 0.02037
68.66734 -97.30772 0.18726 0.01983
12.76303 33.79353 0.20740 0.02196
11.84553 60.00168 0.56560 0.02749
12.76303 86.20983 0.61199 0.03151
68.66734 -112.68421 0.48095 0.02860
69.06442 -119.99832 0.36936 0.02517
68.66734 -127.31243 0.31185 0.02177
12.76303 3.79397 0.11217 0.01991
11.84553 30.00212 0.25404 0.02026
12.76303 56.21026 0.42809 0.02555
68.66734 -142.68377 0.19347 0.01938
69.06442 -149.99788 0.10089 0.01605
68.66734 -157.31200 0.17657 0.02354
12.76303 -26.20560 0.13802 0.01950
11.84553 0.00255 0.15942 0.01960
12.76303 26.21070 0.14539 0.01832
68.66734 -172.68334 0.22688 0.02246
69.06442 -179.99745 0.18334 0.02195
68.66734 172.68844 0.22688 0.02069
12.76303 -56.20645 0.33390 0.02501
11.84553 -29.99830 0.18557 0.02061
12.76303 -3.79015 0.10793 0.01640
68.66734 157.31581 0.14423 0.01983
69.06442 150.00170 0.15162 0.02099
68.66734 142.68759 0.19805 0.01965
12.76303 -86.20730 0.50853 0.02937
11.84553 -59.99915 0.35286 0.02382
12.76303 -33.79100 0.11808 0.01689
68.66734 127.31496 0.34505 0.02594
69.06442 120.00085 0.39185 0.02517
68.66734 112.68674 0.44080 0.02596
12.76303 -116.20815 0.36725 0.02458
11.84553 -90.00000 0.57739 0.02809
12.76303 -63.79185 0.27369 0.02296
68.66734 97.31411 0.27841 0.02332
69.06442 90.00000 0.09680 0.01813
68.66734 82.68589 0.15489 0.01920
16.46989 -110.28705 0.32675 0.02434
15.86376 -90.00000 0.42828 0.02533
16.46989 -69.71295 0.22220 0.02298
62.70303 97.52128 0.26468 0.02280
63.02687 90.00000 0.15114 0.02018
62.70303 82.47872 0.21235 0.01987
16.46989 -80.28877 0.36826 0.02726
15.86376 -60.00172 0.17541 0.01925
16.46989 -39.71467 0.05841 0.01388
62.70303 127.51955 0.41673 0.02834
63.02687 119.99828 0.30827 0.02407
62.70303 112.47700 0.36237 0.02315
16.46989 -50.28792 0.11147 0.01875
15.86376 -30.00087 0.08136 0.01809
16.46989 -9.71382 0.09854 0.02615
62.70303 157.52041 0.27894 0.02435
63.02687 149.99913 0.14951 0.02047
62.70303 142.47785 0.30164 0.02250
16.46989 -20.29093 0.05409 0.01445
15.86376 -0.00388 0.08386 0.01903
16.46989 20.28318 0.05148 0.01445
62.70303 -172.48260 0.47572 0.02949
63.02687 179.99612 0.61957 0.02990
62.70303 172.47485 0.64843 0.02924
16.46989 9.70864 0.07450 0.01521
15.86376 29.99569 0.08318 0.02179
16.46989 50.28274 0.14503 0.01964
62.70303 -142.48304 0.34107 0.02528
63.02687 -150.00431 0.16823 0.02443
62.70303 -157.52559 0.16304 0.01718
16.46989 39.71077 0.09637 0.03306
15.86376 59.99782 0.26911 0.02150
16.46989 80.28488 0.44153 0.02635
62.70303 -112.48090 0.39737 0.02576
63.02687 -120.00218 0.34202 0.02535
62.70303 -127.52345 0.44919 0.02583
16.46989 69.70905 0.36109 0.02677
15.86376 89.99610 0.42675 0.02589
16.46989 110.28316 0.25993 0.02186
62.70303 -82.48262 0.29057 0.02401
63.02687 -90.00390 0.11025 0.01962
62.70303 -97.52517 0.18945 0.01899
16.46989 99.70990 0.40948 0.02612
15.86376 119.99695 0.23672 0.02035
16.46989 140.28401 0.10846 0.02809
62.70303 -52.48177 0.41669 0.03033
63.02687 -60.00305 0.41654 0.02724
62.70303 -67.52432 0.45253 0.02464
16.46989 129.71204 0.17555 0.01984
15.86376 149.99909 0.08429 0.01552
16.46989 170.28614 0.08753 0.02731
62.70303 -22.47963 0.27540 0.02507
63.02687 -30.00091 0.15833 0.02177
62.70303 -37.52219 0.26370 0.02212
16.46989 159.71160 0.09202 0.01713
15.86376 179.99865 0.09077 0.01626
16.46989 -159.71429 0.06730 0.01858
62.70303 7.51993 0.52692 0.03097
63.02687 -0.00135 0.58570 0.03324
62.70303 -7.52262 0.57884 0.02661
16.46989 -170.29012 0.09109 0.02051
15.86376 -150.00307 0.07727 0.01549
16.46989 -129.71601 0.20685 0.02051
62.70303 37.51821 0.33721 0.02451
63.02687 29.99693 0.12959 0.01685
62.70303 22.47566 0.24388 0.02327
16.46989 -140.28927 0.07459 0.01684
15.86376 -120.00222 0.30024 0.02369
16.46989 -99.71516 0.35108 0.02447
62.70303 67.51906 0.32855 0.02466
63.02687 59.99778 0.28669 0.02467
62.70303 52.47651 0.40733 0.02550
20.35407 -136.58209 0.04192 0.01378
19.94675 -120.00222 0.17721 0.01953
20.35407 -103.42234 0.29607 0.02398
57.08758 67.79872 0.29231 0.02359
57.34405 59.99778 0.22895 0.02169
57.08758 52.19684 0.35164 0.02407
20.35407 -166.58166 0.05198 0.01508
19.94675 -150.00178 0.02935 0.01232
20.35407 -133.42191 0.08727 0.01560
57.08758 37.79916 0.42168 0.02787
57.34405 29.99822 0.22668 0.02265
57.08758 22.19728 0.29149 0.02153
20.35407 163.42007 0.05981 0.01597
19.94675 179.99994 0.07060 0.02030
20.35407 -163.42019 0.05547 0.01652
57.08758 7.80088 0.79351 0.03607
57.34405 -0.00006 1.09199 0.03868
57.08758 -7.80100 0.85946 0.03341
20.35407 133.42050 0.04243 0.03102
19.94675 150.00038 0.03295 0.01883
20.35407 166.58025 0.05882 0.01591
57.08758 -22.19869 0.32529 0.02807
57.34405 -29.99962 0.19200 0.02349
57.08758 -37.80056 0.42179 0.02598
20.35407 103.41965 0.29990 0.02613
19.94675 119.99952 0.09971 0.01734
20.35407 136.57940 0.04109 0.01418
57.08758 -52.19954 0.46469 0.02877
57.34405 -60.00048 0.33728 0.02655
57.08758 -67.80141 0.32652 0.02283
20.35407 73.42137 0.30344 0.02772
19.94675 90.00125 0.30035 0.02180
20.35407 106.58112 0.22103 0.02090
57.08758 -82.19782 0.26294 0.02311
57.34405 -89.99875 0.15497 0.01967
57.08758 -97.79969 0.24052 0.02067
20.35407 43.42181 0.11772 0.03854
19.94675 60.00168 0.14922 0.01872
20.35407 76.58156 0.31578 0.02398
57.08758 -112.19738 0.30461 0.02381
57.34405 -119.99832 0.30747 0.02380
57.08758 -127.79926 0.37118 0.02481
20.35407 13.42096 0.02997 0.01427
19.94675 30.00083 0.03839 0.01485
20.35407 46.58071 0.08723 0.02041
57.08758 -142.19823 0.41723 0.02913
57.34405 -149.99917 0.25595 0.02335
57.08758 -157.80011 0.26056 0.02243
20.35407 -16.57861 0.05872 0.01798
19.94675 0.00127 0.03702 0.01774
20.35407 16.58114 0.03341 0.01416
57.08758 -172.19780 0.68338 0.03402
57.34405 -179.99873 1.13357 0.03864
57.08758 172.20033 0.91869 0.03285
20.35407 -46.57817 0.06999 0.01718
19.94675 -29.99830 0.08138 0.02944
20.35407 -13.41842 0.02537 0.01814
57.08758 157.80264 0.28329 0.02388
57.34405 150.00170 0.17205 0.02006
57.08758 142.20076 0.32354 0.02200
20.35407 -76.57902 0.27298 0.02214
19.94675 -59.99915 0.11318 0.01850
20.35407 -43.41927 0.03900 0.01344
57.08758 127.80179 0.35655 0.02636
57.34405 120.00085 0.29798 0.02371
57.08758 112.19991 0.31988 0.02350
20.35407 -106.57987 0.30073 0.02403
19.94675 -90.00000 0.26155 0.02214
20.35407 -73.42013 0.19702 0.02161
57.08758 97.80094 0.21879 0.02258
57.34405 90.00000 0.17136 0.02138
57.08758 82.19906 0.19760 0.02002
24.37601 -104.08165 0.25505 0.02357
24.10869 -90.00000 0.15532 0.01903
24.37601 -75.91835 0.20215 0.02186
51.77717 98.16569 0.22429 0.02248
51.96990 90.00000 0.11724 0.01900
51.77717 81.83431 0.16344 0.01757
24.37601 -74.08466 0.27408 0.02309
24.10869 -60.00301 0.07576 0.01517
24.37601 -45.92135 0.02699 0.01970
51.77717 128.16269 0.25355 0.02226
51.96990 119.99699 0.21347 0.02277
51.77717 111.83130 0.22289 0.02019
24.37601 -44.08252 0.27627 0.27228
24.10869 -30.00087 0.02320 0.01261
24.37601 -15.91922 0.02670 0.01661
51.77717 158.16482 0.35116 0.02751
51.96990 149.99913 0.30656 0.02635
51.77717 141.83344 0.37114 0.02428
24.37601 -14.08553 0.04970 0.01614
24.10869 -0.00388 0.04174 0.01961
24.37601 14.07778 0.05435 0.01600
51.77717 -171.83818 0.52309 0.03027
51.96990 179.99612 0.94611 0.03630
51.77717 171.83043 0.79186 0.03108
24.37601 15.91403 0.02398 0.01354
24.10869 29.99569 0.02008 0.01243
24.37601 44.07734 0.06381 0.02301
51.77717 -141.83862 0.37434 0.02648
51.96990 -150.00431 0.30012 0.02555
51.77717 -158.17000 0.32667 0.02390
24.37601 45.91617 0.03273 0.01415
24.10869 59.99782 0.10381 0.01686
24.37601 74.07948 0.25668 0.02002
51.77717 -111.83648 0.23526 0.02350
51.96990 -120.00218 0.21546 0.02049
51.77717 -128.16787 0.25285 0.02187
24.37601 75.91445 0.22930 0.02315
24.10869 89.99610 0.18201 0.01996
24.37601 104.07776 0.21717 0.02161
51.77717 -81.83820 0.25186 0.02373
51.96990 -90.00390 0.18093 0.02165
51.77717 -98.16959 0.18316 0.01871
24.37601 105.91530 0.25266 0.02299
24.10869 119.99695 0.07915 0.02047
24.37601 134.07861 0.26922 0.08471
51.77717 -51.83735 0.35689 0.02646
51.96990 -60.00305 0.23383 0.02283
51.77717 -68.16874 0.25623 0.02032
24.37601 135.91744 0.06767 0.04251
24.10869 149.99909 0.02842 0.02812
24.37601 164.08074 0.05157 0.01594
51.77717 -21.83522 0.39773 0.02950
51.96990 -30.00091 0.28799 0.02419
51.77717 -38.16660 0.36269 0.02415
24.37601 165.91700 0.05199 0.01586
24.10869 179.99865 0.01683 0.01424
24.37601 -165.91969 0.02425 0.01444
51.77717 8.16435 0.68175 0.03289
51.96990 -0.00135 1.13270 0.03979
51.77717 -8.16704 0.76129 0.03251
24.37601 -164.08472 0.04196 0.01852
24.10869 -150.00307 0.03017 0.01366
24.37601 -135.92141 0.03537 0.01750
51.77717 38.16263 0.32955 0.02482
51.96990 29.99693 0.31852 0.02450
51.77717 21.83124 0.35311 0.02535
24.37601 -134.08258 0.03539 0.01448
24.10869 -120.00093 0.12532 0.01843
24.37601 -105.91928 0.23636 0.01971
51.77717 68.16476 0.20127 0.02196
51.96990 59.99907 0.15761 0.01971
51.77717 51.83338 0.22524 0.02153
28.52653 -132.30824 0.39547 0.02760
28.36567 -120.00093 0.09601 0.01816
28.52653 -107.69362 0.20418 0.01977
46.73358 68.63253 0.19951 0.01994
46.86401 59.99907 0.13653 0.01865
46.73358 51.36561 0.10942 0.01743
28.52653 -162.30781 0.02836 0.01296
28.36567 -150.00050 0.03286 0.01541
28.52653 -137.69318 0.04137 0.01473
46.73358 38.63297 0.17455 0.02157
46.86401 29.99950 0.34297 0.02546
46.73358 21.36604 0.34320 0.02414
28.52653 167.69263 0.05469 0.01398
28.36567 179.99994 0.02254 0.02056
28.52653 -167.69275 0.03642 0.01372
46.73358 8.63340 0.42639 0.03027
46.86401 -0.00006 0.60171 0.03281
46.73358 -8.63352 0.51002 0.02776
28.52653 137.69306 0.02486 0.01428
28.36567 150.00038 0.03255 0.01353
28.52653 162.30769 0.03807 0.01615
46.73358 -21.36616 0.36849 0.02860
46.86401 -29.99962 0.31758 0.02458
46.73358 -38.63309 0.27862 0.02235
28.52653 107.69221 0.20708 0.02217
28.36567 119.99952 0.09128 0.02055
28.52653 132.30684 0.01188 0.01311
46.73358 -51.36701 0.18185 0.02287
46.86401 -60.00048 0.18049 0.02170
46.73358 -68.63394 0.24585 0.02170
28.52653 77.69908 0.20643 0.02251
28.36567 90.00639 0.13716 0.01645
28.52653 102.31370 0.20799 0.02154
46.73358 -81.36015 0.17495 0.02050
46.86401 -89.99361 0.11511 0.01966
46.73358 -98.62707 0.14679 0.02038
28.52653 47.69180 0.01380 0.01262
28.36567 59.99911 0.10073 0.01836
28.52653 72.30642 0.21156 0.02299
46.73358 -111.36743 0.21719 0.02233
46.86401 -120.00089 0.17841 0.02164
46.73358 -128.63435 0.16207 0.01925
28.52653 17.69223 0.02234 0.01284
28.36567 29.99954 0.03355 0.01831
28.52653 42.30686 0.05063 0.01992
46.73358 -141.36699 0.27600 0.02482
46.86401 -150.00046 0.30773 0.02542
46.73358 -158.63392 0.31946 0.02446
28.52653 -12.30347 0.06337 0.02107
28.36567 0.00384 0.05892 0.01427
28.52653 12.31115 0.08172 0.02667
46.73358 -171.36270 0.39078 0.02996
46.86401 -179.99616 0.55716 0.03244
46.73358 171.37037 0.42068 0.02541
28.52653 -42.30561 0.08399 0.02746
28.36567 -29.99830 0.02162 0.01218
28.52653 -17.69099 0.05293 0.01489
46.73358 158.63516 0.33291 0.02553
46.86401 150.00170 0.32100 0.02459
46.73358 141.36824 0.29607 0.02328
28.52653 -72.30518 0.20466 0.02062
28.36567 -59.99786 0.06233 0.01457
28.52653 -47.69055 0.09186 0.11293
46.73358 128.63560 0.15536 0.02066
46.86401 120.00214 0.12701 0.01912
46.73358 111.36867 0.20804 0.02069
28.52653 -102.29960 0.22307 0.02302
28.36567 -89.99229 0.13924 0.01770
28.52653 -77.68497 0.22539 0.02229
46.73358 98.64118 0.16046 0.02050
46.86401 90.00771 0.07677 0.01685
46.73358 81.37425 0.13142 0.01761
32.82102 -100.98828 0.17649 0.02246
32.74665 -89.99229 0.10614 0.01662
32.82102 -78.99629 0.17658 0.02082
41.91203 99.23929 0.17456 0.01998
41.97916 90.00771 0.06417 0.01597
41.91203 80.77613 0.14576 0.01803
32.82102 -70.99900 0.18394 0.02111
32.74665 -60.00301 0.07234 0.01645
32.82102 -49.00702 0.04652 0.01973
41.91203 129.22857 0.10086 0.01819
41.97916 119.99699 0.09504 0.01899
41.91203 110.76541 0.16135 0.01934
32.82102 -40.99943 0.02018 0.01232
32.74665 -30.00344 0.03995 0.01326
32.82102 -19.00745 0.06323 0.01573
41.91203 159.22814 0.16289 0.02359
41.97916 149.99656 0.20368 0.02431
41.91203 140.76498 0.14001 0.02112
32.82102 -10.99730 0.27052 0.09772
32.74665 -0.00131 0.05870 0.01935
32.82102 10.99469 0.06100 0.01639
41.91203 -170.76973 0.18452 0.02411
41.97916 179.99869 0.19975 0.02192
41.91203 170.76711 0.20379 0.02100
32.82102 18.99841 0.07290 0.03544
32.74665 29.99440 0.04636 0.01440
32.82102 40.99039 0.13773 0.12423
41.91203 -140.77402 0.10990 0.01880
41.97916 -150.00560 0.17474 0.02325
41.91203 -159.23718 0.18830 0.02185
32.82102 49.00183 0.03478 0.01388
32.74665 59.99782 0.07048 0.01761
32.82102 70.99381 0.21314 0.02153
41.91203 -110.77060 0.18208 0.02257
41.97916 -120.00218 0.12877 0.02105
41.91203 -129.23376 0.07083 0.02169
32.82102 79.00140 0.23690 0.02383
32.74665 89.99739 0.14633 0.01798
32.82102 100.99338 0.19520 0.02183
41.91203 -80.77103 0.20000 0.02281
41.97916 -90.00261 0.09112 0.01681
41.91203 -99.23419 0.17972 0.01848
32.82102 109.00096 0.17759 0.02084
32.74665 119.99695 0.05496 0.01400
32.82102 130.99294 0.01948 0.01247
41.91203 -50.77147 0.14301 0.03139
41.97916 -60.00305 0.09813 0.01815
41.91203 -69.23463 0.20729 0.02022
32.82102 139.00181 0.20816 0.07739
32.74665 149.99780 0.06996 0.01729
32.82102 160.99379 0.15790 0.05866
41.91203 -20.77062 0.25339 0.02579
41.97916 -30.00220 0.25041 0.02321
41.91203 -39.23378 0.13789 0.01781
32.82102 169.00266 0.03135 0.01341
32.74665 179.99865 0.04551 0.01556
32.82102 -169.00535 0.03240 0.01411
41.91203 9.23023 0.23672 0.02274
41.97916 -0.00135 0.18162 0.02128
41.91203 -9.23293 0.23377 0.02325
32.82102 -160.99906 0.05862 0.01650
32.74665 -150.00307 0.05155 0.01993
32.82102 -139.00708 0.03661 0.01358
41.91203 39.22851 0.12588 0.02190
41.97916 29.99693 0.18549 0.02139
41.91203 20.76535 0.19627 0.02054
32.82102 -130.99821 0.22233 0.07248
32.74665 -120.00222 0.14016 0.01855
32.82102 -109.00623 0.18795 0.02282
41.91203 69.22936 0.17106 0.02053
41.97916 59.99778 0.11059 0.01936
41.91203 50.76620 0.09437 0.01801
37.27288 -130.00345 0.05713 0.01877
37.27278 -120.00222 0.14365 0.02007
37.27288 -110.00098 0.16934 0.01861
37.28556 69.99659 0.20523 0.02199
37.28566 59.99778 0.09835 0.01902
37.28556 49.99898 0.07254 0.03639
37.27288 -160.00173 0.08838 0.01911
37.27278 -150.00050 0.04589 0.01413
37.27288 -139.99926 0.07177 0.01780
37.28556 39.99831 0.06172 0.01538
37.28566 29.99950 0.07173 0.02436
37.28556 20.00070 0.08245 0.01952
37.27288 169.99871 0.06193 0.01705
37.27278 179.99994 0.05003 0.01816
37.27288 -169.99883 0.10001 0.01658
37.28556 9.99874 0.06712 0.01737
37.28566 -0.00006 0.10316 0.02201
37.28556 -9.99886 0.10853 0.01778
37.27288 139.99914 0.04634 0.01550
37.27278 150.00038 0.06232 0.01423
37.27288 160.00161 0.05896 0.02038
37.28556 -20.00082 0.14920 0.02995
37.28566 -29.99962 0.10980 0.01715
37.28556 -39.99843 0.12152 0.04932
37.27288 109.99958 0.14925 0.01977
37.27278 120.00081 0.07166 0.01500
37.27288 130.00204 0.03578 0.01724
37.28556 -50.00039 0.08095 0.03258
37.28566 -59.99919 0.07404 0.01807
37.28556 -69.99799 0.14675 0.01916
37.27288 79.99873 0.15289 0.01992
37.27278 89.99996 0.09977 0.01623
37.27288 100.00119 0.17225 0.02042
37.28556 -80.00124 0.18285 0.02059
37.28566 -90.00004 0.05787 0.01583
37.28556 -99.99884 0.15768 0.01970
37.27288 50.00816 0.04051 0.01535
37.27278 60.00940 0.08942 0.01527
37.27288 70.01063 0.18666 0.02008
37.28556 -109.99180 0.18621 0.02391
37.28566 -119.99060 0.13026 0.02007
37.28556 -129.98941 0.06345 0.01417
37.27288 19.99960 0.10144 0.01652
37.27278 30.00083 0.07268 0.01446
37.27288 40.00206 0.05039 0.01374
37.28556 -140.00037 0.07789 0.01543
37.28566 -149.99917 0.07659 0.01806
37.28556 -159.99797 0.12681 0.01964
37.27288 -9.99997 0.08398 0.01741
37.27278 0.00127 0.08188 0.01615
37.27288 10.00250 0.10273 0.02167
37.28556 -169.99993 0.09191 0.01949
37.28566 -179.99873 0.10814 0.02500
37.28556 170.00246 0.09246 0.01777
37.27288 -39.99953 0.05678 0.01755
37.27278 -29.99830 0.07496 0.01532
37.27288 -19.99707 0.05821 0.01443
37.28556 160.00050 0.32280 0.23030
37.28566 150.00170 0.08318 0.02265
37.28556 140.00290 0.07978 0.02228
37.27288 -70.00167 0.16250 0.02180
37.27278 -60.00044 0.08975 0.01559
37.27288 -49.99920 0.05665 0.01616
37.28556 129.99837 0.03737 0.01405
37.28566 119.99956 0.07570 0.01901
37.28556 110.00076 0.17958 0.02171
37.27288 -99.99995 0.14742 0.02005
37.27278 -89.99871 0.10166 0.01590
37.27288 -79.99748 0.16888 0.01974
37.28556 100.00009 0.14008 0.01977
37.28566 90.00129 0.10561 0.01897
37.28556 80.00248 0.18051 0.01950
